File: data/xrd_Cu_spectra.csv
40.0029,1040
40.3377,944
40.6726,1021
41.0074,1064
41.3422,1127
41.677,1059
42.0119,1149
42.3467,1175
42.6815,1124
43.0163,1910
43.3511,14598
43.686,1254
44.0208,1160
44.3556,1126
44.6904,1149
45.0253,1165
45.3601,1172
45.6949,1139
46.0297,1193
46.3645,1160
46.6994,1196
47.0342,1181
47.369,1189
47.7038,1231
48.0387,1265
48.3735,1196
48.7083,1245
49.0431,1248
49.3779,1266
49.7128,1284
50.0476,1485
50.3824,13535
50.7172,1644
51.0521,1290
51.3869,1297
51.7217,1322
52.0565,1295
52.3913,1316
52.7262,1362
53.061,1351
53.3958,1330
53.7306,1399
54.0655,1361
54.4003,1361
54.7351,1397
55.0699,1302
55.4047,1392
55.7396,1397
56.0744,1439
56.4092,1449
56.744,1372
57.0789,1472
57.4137,1487
57.7485,1419
58.0833,1422
58.4181,1424
58.753,1472
59.0878,1502
59.4226,1511
59.7574,1517
60.0923,1436
60.4271,1547
60.7619,1546
61.0967,1591
61.4315,1634
61.7664,1601
62.1012,1578
62.436,1610
62.7708,1585
63.1057,1587
63.4405,1572
63.7753,1620
64.1101,1616
64.4449,1691
64.7798,1678
65.1146,1630
65.4494,1653
65.7842,1652
66.1191,1671
66.4539,1715
66.7887,1716
67.1235,1681
67.4583,1713
67.7932,1729
68.128,1828
68.4628,1801
68.7976,1791
69.1325,1778
69.4673,1788
69.8021,1808
70.1369,1866
70.4717,1894
70.8066,1842
71.1414,1862
71.4762,1894
71.811,1885
72.1459,1980
72.4807,1954
72.8155,2036
73.1503,1980
73.4851,2068
73.82,2355
74.1548,5238
74.4896,2283
74.8244,2001
75.1593,1983
75.4941,1911
75.8289,2003
76.1637,2051
76.4985,2068
76.8334,2062
77.1682,2052
77.503,2149
77.8378,2051
78.1727,2067
78.5075,2081
78.8423,2151
79.1771,2138
79.5119,2011
79.8468,2159
80.1816,2169
80.5164,2236
80.8512,2125
81.1861,2183
81.5209,2225
81.8557,2236
82.1905,2226
82.5253,2160
82.8602,2276
83.195,2242
83.5298,2306
83.8646,2263
84.1995,2305
84.5343,2274
84.8691,2251
85.2039,2330
85.5387,2314
85.8736,2318
86.2084,2322
86.5432,2328
86.878,2388
87.2129,2320
87.5477,2367
87.8825,2412
88.2173,2378
88.5521,2486
88.887,2464
89.2218,2490
89.5566,2962
89.8914,13805
90.2263,5869
90.5611,2731
90.8959,2514
91.2307,2402
91.5655,2519
91.9004,2489
92.2352,2647
92.57,2638
92.9048,2529
93.2397,2568
93.5745,2618
93.9093,2526
94.2441,2542
94.5789,2660
94.9138,3036
95.2486,3253
95.5834,2757
95.9182,2557
96.2531,2702
96.5879,2643
96.9227,2648
97.2575,2652
97.5923,2680
97.9272,2716
98.262,2602
98.5968,2684
98.9316,2645
99.2665,2714
99.6013,2677
99.9361,2573
100.271,2680
100.606,2702
100.941,2676
101.275,2644
101.61,2880
101.945,2715
102.28,2776
102.615,2802
102.949,2701
103.284,2802
103.619,2878
103.954,2722
104.289,2830
104.624,2833
104.958,2826
105.293,2851
105.628,2851
105.963,2814
106.298,2855
106.633,2772
106.967,2860
107.302,2883
107.637,2926
107.972,2884
108.307,2922
108.641,2956
108.976,2915
109.311,2861
109.646,2960
109.981,2926
110.316,3022
110.65,2874
110.985,2952
111.32,2977
111.655,2925
111.99,2946
112.325,2965
112.659,2998
112.994,3026
113.329,2896
113.664,3047
113.999,3087
114.333,3058
114.668,3140
115.003,3021
115.338,3073
115.673,3049
116.008,3110
116.342,3084
116.677,3480
117.012,3846
117.347,4152
117.682,3261
118.016,3137
118.351,3138
118.686,3136
119.021,3137
119.356,3083
119.691,3225
120.025,3170
120.36,3265
120.695,3176
121.03,3227
121.365,3233
121.7,3127
122.034,3174
122.369,3169
122.704,3275
123.039,3305
123.374,3148
123.708,3301
124.043,3304
124.378,3261
124.713,3233
125.048,3284
125.383,3308
125.717,3336
126.052,3278
126.387,3311
126.722,3304
127.057,3319
127.392,3282
127.726,3372
128.061,3354
128.396,3526
128.731,3330
129.066,3382
129.4,3485
129.735,3412
130.07,3412
130.405,3438
130.74,3452
131.075,3378
131.409,3519
131.744,3478
132.079,3495
132.414,3564
132.749,3462
133.083,3637
133.418,3674
133.753,3578
134.088,3736
134.423,3636
134.758,3520
135.092,3729
135.427,3824
135.762,3785
136.097,4369
136.432,11186
136.767,4764
137.101,6578
137.436,4458
137.771,3832
138.106,3916
138.441,3792
138.775,3829
139.11,3708
139.445,3759
139.78,3851
139.997,3804