File: data/xrd_Fe_spectra.csv
40.0029,1754
40.3377,1794
40.6726,1740
41.0074,1862
41.3422,1983
41.677,1878
42.0119,1861
42.3467,1816
42.6815,1848
43.0163,1917
43.3511,1906
43.686,2015
44.0208,2061
44.3556,2145
44.6904,4451
45.0253,2057
45.3601,2049
45.6949,2061
46.0297,2115
46.3645,2015
46.6994,2069
47.0342,2107
47.369,2100
47.7038,2089
48.0387,2118
48.3735,2132
48.7083,2137
49.0431,2118
49.3779,2156
49.7128,2215
50.0476,2195
50.3824,2224
50.7172,2268
51.0521,2323
51.3869,2360
51.7217,2314
52.0565,2281
52.3913,2301
52.7262,2381
53.061,2408
53.3958,2482
53.7306,2528
54.0655,2475
54.4003,2476
54.7351,2503
55.0699,2481
55.4047,2559
55.7396,2587
56.0744,2596
56.4092,2564
56.744,2649
57.0789,2654
57.4137,2574
57.7485,2563
58.0833,2668
58.4181,2610
58.753,2590
59.0878,2629
59.4226,2599
59.7574,2716
60.0923,2726
60.4271,2707
60.7619,2718
61.0967,2683
61.4315,2704
61.7664,2773
62.1012,2749
62.436,2716
62.7708,2798
63.1057,2728
63.4405,2904
63.7753,2775
64.1101,2841
64.4449,2841
64.7798,2932
65.1146,3290
65.4494,2929
65.7842,2977
66.1191,2791
66.4539,2953
66.7887,2931
67.1235,3000
67.4583,2968
67.7932,2957
68.128,3167
68.4628,3041
68.7976,3076
69.1325,3036
69.4673,3092
69.8021,3138
70.1369,3129
70.4717,3062
70.8066,3140
71.1414,3178
71.4762,3140
71.811,3141
72.1459,3195
72.4807,3245
72.8155,3302
73.1503,3307
73.4851,3198
73.82,3336
74.1548,3345
74.4896,3277
74.8244,3286
75.1593,3393
75.4941,3313
75.8289,3284
76.1637,3390
76.4985,3352
76.8334,3448
77.1682,3447
77.503,3432
77.8378,3478
78.1727,3436
78.5075,3424
78.8423,3584
79.1771,3479
79.5119,3614
79.8468,3538
80.1816,3557
80.5164,3675
80.8512,3663
81.1861,3673
81.5209,3809
81.8557,3702
82.1905,4386
82.5253,4944
82.8602,3764
83.195,3747
83.5298,3862
83.8646,3796
84.1995,3803
84.5343,3849
84.8691,3899
85.2039,3896
85.5387,3945
85.8736,3823
86.2084,3810
86.5432,3918
86.878,3945
87.2129,4001
87.5477,3958
87.8825,4063
88.2173,3960
88.5521,3956
88.887,3845
89.2218,3948
89.5566,3912
89.8914,3989
90.2263,4086
90.5611,3928
90.8959,4072
91.2307,4240
91.5655,4196
91.9004,4076
92.2352,4150
92.57,4170
92.9048,4131
93.2397,4103
93.5745,4154
93.9093,4202
94.2441,4149
94.5789,4210
94.9138,4298
95.2486,4258
95.5834,4267
95.9182,4213
96.2531,4399
96.5879,4301
96.9227,4381
97.2575,4316
97.5923,4247
97.9272,4277
98.262,4277
98.5968,4385
98.9316,5113
99.2665,4765
99.6013,4340
99.9361,4405
100.271,4493
100.606,4419
100.941,4474
101.275,4514
101.61,4488
101.945,4521
102.28,4421
102.615,4525
102.949,4568
103.284,4547
103.619,4556
103.954,4522
104.289,4517
104.624,4620
104.958,4614
105.293,4629
105.628,4514
105.963,4656
106.298,4635
106.633,4643
106.967,4683
107.302,4657
107.637,4661
107.972,4723
108.307,4765
108.641,4779
108.976,4677
109.311,4701
109.646,4693
109.981,4770
110.316,4819
110.65,4812
110.985,4830
111.32,4945
111.655,4916
111.99,4918
112.325,4950
112.659,4803
112.994,4865
113.329,4859
113.664,4818
113.999,4879
114.333,5001
114.668,4820
115.003,4927
115.338,4954
115.673,5046
116.008,5166
116.342,6354
116.677,5283
117.012,5017
117.347,5189
117.682,5107
118.016,4921
118.351,5151
118.686,5078
119.021,5078
119.356,5119
119.691,5156
120.025,5147
120.36,5182
120.695,5186
121.03,5182
121.365,5246
121.7,5298
122.034,5232
122.369,5181
122.704,5170
123.039,5259
123.374,5264
123.708,5341
124.043,5405
124.378,5327
124.713,5268
125.048,5297
125.383,5402
125.717,5209
126.052,5577
126.387,5526
126.722,5276
127.057,5480
127.392,5469
127.726,5377
128.061,5369
128.396,5506
128.731,5451
129.066,5606
129.4,5528
129.735,5654
130.07,5538
130.405,5603
130.74,5660
131.075,5474
131.409,5604
131.744,5568
132.079,5570
132.414,5622
132.749,5656
133.083,5631
133.418,5482
133.753,5640
134.088,5646
134.423,5742
134.758,5770
135.092,5702
135.427,5548
135.762,5800
136.097,5837
136.432,5811
136.767,5745
137.101,6248
137.436,5847
137.771,5802
138.106,5916
138.441,5807
138.775,5740
139.11,5764
139.445,5805
139.78,5696
139.997,5852